File: weave/spectra/Al2O3_StdC_15kV7p5nA130kHz_300s.msa
#FORMAT      : EMSA/MAS Spectral Data File
#VERSION     : 1.0
#TITLE       : Bruker Nano spectrum Acquisition
#DATE        : 31-DEC-1969
#TIME        : 07:00
#OWNER       : Bruker Nano
#NPOINTS     : 4096
#NCOLUMNS    : 1
#XUNITS      : eV
#YUNITS      : counts
#DATATYPE    : Y
#XPERCHAN    : 5.00332
#OFFSET      : -482.834
#BEAMKV      : 15
#SIGNALTYPE  : EDS
#ELEVANGLE   : 40
#AZIMANGLE   : 45
#LIVETIME    : 300
#REALTIME    : 353.979
#PROBECUR    : 7.5
#TAUWIND     : 0
#TDEADLYR    : 0
#TACTLYR     : 0.045
#TALWIND     : 0.004
#CHOFFSET    : 0.0
#XLABEL      : Energy (eV)
#YLABEL      : Counts
#EDSDET      : SDUTW
##SPECIMEN   : Al2O3_StdC_15kV7p5nA130kHz_300s
##D2STDCMP   : Al2O3,(O:47.0749),(Al:52.9251),3.97
##DET_HASH   : c6370f9e-cc72-7559-f57e-203d75c8942b
##CALIB_HASH : b7972ae8-4123-2fc4-0a4f-7316ec9026e4
##SAMPLE     : <BulkSample id="1">\n<mOrientation id="2">\n<double>0.0</double>\n<double>0.0</double>\n<double>-1.0</double>\n</mOrientation>\n</BulkSample>
#SPECTRUM    :
0,
0,
0,
0,
9,
40,
5699,
418441,
179,
1067,
2224,
11571,
2133,
5246,
204095,
57073,
2795,
3644,
4237,
5412,
5853,
6684,
7260,
7875,
8596,
10248,
12706,
52946,
869673,
172127,
8836,
4558,
4961,
4111,
4057,
4468,
4208,
4066,
3980,
4025,
4242,
3845,
3866,
3806,
3748,
3593,
3641,
3504,
3183,
3053,
3065,
3067,
3096,
2939,
2959,
2904,
2817,
2722,
2753,
2891,
2927,
2518,
2425,
2362,
2392,
2267,
2145,
2155,
2120,
1985,
2044,
1948,
1917,
1909,
1846,
1762,
1766,
1639,
1620,
1589,
1588,
1545,
1560,
1471,
1452,
1415,
1421,
1389,
1272,
1380,
1274,
1236,
1223,
1119,
1157,
1125,
1088,
1096,
1035,
1079,
1016,
970,
950,
941,
916,
903,
879,
883,
874,
842,
759,
805,
781,
740,
765,
721,
716,
685,
703,
734,
691,
628,
627,
585,
611,
612,
594,
518,
507,
555,
538,
500,
514,
496,
477,
458,
437,
415,
417,
438,
448,
418,
407,
391,
393,
383,
357,
344,
348,
313,
296,
358,
304,
348,
309,
302,
276,
278,
276,
266,
252,
235,
256,
211,
178,
195,
173,
183,
180,
182,
157,
178,
157,
153,
178,
145,
161,
138,
137,
125,
135,
112,
124,
107,
112,
136,
115,
91,
102,
100,
100,
77,
74,
88,
77,
55,
72,
51,
53,
48,
36,
53,
35,
42,
41,
22,
38,
39,
27,
20,
21,
21,
18,
11,
11,
7,
12,
10,
10,
4,
7,
7,
1,
2,
2,
0,
1,
0,
1,
1,
1,
0,
2,
0,
0,
0,
1,
1,
0,
0,
1,
0,
0,
0,
0,
0,
0,
0,
0,
0,
0,
0,
0,
0,
0,
0,
0,
1,
0,
1,
0,
0,
0,
1,
0,
0,
0,
0,
0,
0,
0,
0,
0,
0,
0,
0,
0,
0,
0,
1,
0,
0,
0,
0,
0,
0,
0,
0,
0,
0,
0,
0,
0,
0,
#ENDOFDATA   :