File: weave/spectra/C_StdC_15kV7p5nA130kHz_48kHz9DT_100s.msa
#FORMAT      : EMSA/MAS Spectral Data File
#VERSION     : 1.0
#TITLE       : Bruker Nano spectrum Acquisition
#DATE        : 03-OCT-2019
#TIME        : 08:38
#OWNER       : Bruker Nano
#NPOINTS     : 4096
#NCOLUMNS    : 1
#XUNITS      : eV
#YUNITS      : counts
#DATATYPE    : Y
#XPERCHAN    : 5.00332
#OFFSET      : -482.834
#BEAMKV      : 15
#SIGNALTYPE  : EDS
#ELEVANGLE   : 40
#AZIMANGLE   : 45
#LIVETIME    : 100
#REALTIME    : 109.577
#PROBECUR    : 7.5
#TAUWIND     : 0
#TDEADLYR    : 0
#TACTLYR     : 0.045
#TALWIND     : 0.004
#CHOFFSET    : 0.0
#XLABEL      : Energy (eV)
#YLABEL      : Counts
#EDSDET      : SDUTW
##D2STDCMP   : C,(C:100.0),2.0
##DET_HASH   : c6370f9e-cc72-7559-f57e-203d75c8942b
##CALIB_HASH : b7972ae8-4123-2fc4-0a4f-7316ec9026e4
##SAMPLE     : <BulkSample id="1">\n<mOrientation id="2">\n<double>0.0</double>\n<double>0.0</double>\n<double>-1.0</double>\n</mOrientation>\n</BulkSample>
#SPECTRUM    :
0,
0,
0,
0,
2,
0,
1136,
82907,
127,
88,
22055,
269520,
1103,
545,
2209,
800,
534,
780,
909,
1040,
1234,
1457,
1515,
1520,
1542,
1648,
1632,
1610,
1577,
1427,
1309,
1441,
1566,
1250,
1188,
1172,
1067,
1034,
1028,
980,
1113,
943,
837,
908,
853,
784,
790,
784,
728,
690,
640,
673,
595,
587,
567,
573,
516,
551,
525,
548,
570,
467,
454,
430,
415,
424,
398,
403,
368,
376,
379,
363,
323,
340,
322,
315,
304,
315,
273,
279,
268,
253,
249,
282,
227,
242,
225,
209,
206,
244,
207,
224,
188,
190,
155,
170,
141,
179,
170,
159,
170,
178,
158,
160,
131,
136,
144,
143,
136,
128,
157,
114,
126,
127,
116,
99,
117,
109,
110,
94,
94,
104,
85,
69,
93,
100,
91,
81,
86,
87,
86,
81,
80,
80,
73,
74,
66,
74,
62,
70,
48,
57,
67,
53,
51,
53,
41,
61,
43,
55,
50,
47,
35,
47,
39,
36,
36,
34,
26,
31,
32,
27,
32,
31,
36,
26,
18,
29,
32,
25,
22,
26,
23,
27,
26,
14,
28,
17,
28,
20,
11,
9,
16,
18,
12,
14,
18,
20,
17,
12,
12,
13,
14,
7,
10,
6,
10,
9,
8,
12,
7,
4,
6,
3,
4,
3,
6,
6,
5,
3,
7,
5,
1,
2,
3,
2,
1,
2,
1,
3,
0,
0,
0,
0,
0,
0,
0,
0,
0,
0,
0,
0,
0,
0,
0,
0,
0,
0,
0,
0,
0,
0,
0,
0,
0,
0,
0,
0,
0,
0,
0,
0,
0,
0,
0,
0,
0,
1,
0,
0,
0,
0,
0,
0,
0,
0,
0,
0,
0,
0,
0,
0,
0,
0,
0,
0,
0,
0,
0,
0,
0,
0,
0,
0,
0,
0,
0,
0,
0,
0,
0,
0,
0,
0,
#ENDOFDATA   :