File: weave/spectra/Si_StdC_15kV7p5nA130kHz_132kHz24DT_100s.msa
#FORMAT      : EMSA/MAS Spectral Data File
#VERSION     : 1.0
#TITLE       : Bruker Nano spectrum Acquisition
#DATE        : 03-OCT-2019
#TIME        : 08:41
#OWNER       : Bruker Nano
#NPOINTS     : 4096
#NCOLUMNS    : 1
#XUNITS      : eV
#YUNITS      : counts
#DATATYPE    : Y
#XPERCHAN    : 5.00332
#OFFSET      : -482.834
#BEAMKV      : 15
#SIGNALTYPE  : EDS
#ELEVANGLE   : 40
#AZIMANGLE   : 45
#LIVETIME    : 100
#REALTIME    : 131.844
#PROBECUR    : 7.5
#TAUWIND     : 0
#TDEADLYR    : 0
#TACTLYR     : 0.045
#TALWIND     : 0.004
#CHOFFSET    : 0.0
#XLABEL      : Energy (eV)
#YLABEL      : Counts
#EDSDET      : SDUTW
##D2STDCMP   : Si,(Si:100.0),2.33
##DET_HASH   : c6370f9e-cc72-7559-f57e-203d75c8942b
##CALIB_HASH : b7972ae8-4123-2fc4-0a4f-7316ec9026e4
##SAMPLE     : <BulkSample id="1">\n<mOrientation id="2">\n<double>0.0</double>\n<double>0.0</double>\n<double>-1.0</double>\n</mOrientation>\n</BulkSample>
#SPECTRUM    :
0,
0,
0,
0,
2,
45,
3928,
277539,
168,
413,
750,
4055,
526,
702,
1837,
1543,
1972,
2501,
2953,
3459,
3789,
3937,
4063,
4142,
4044,
4251,
4251,
4490,
5374,
5880,
6372,
177704,
481919,
42976,
6278,
1570,
1389,
1271,
1299,
1369,
1372,
1368,
1366,
1325,
1277,
1313,
1282,
1286,
1185,
1214,
1186,
1192,
1157,
1122,
1108,
1037,
1033,
1028,
1005,
1087,
1139,
1011,
1018,
970,
929,
941,
917,
894,
890,
823,
828,
832,
819,
792,
720,
702,
728,
729,
715,
687,
702,
643,
668,
634,
615,
548,
565,
559,
598,
575,
537,
536,
515,
518,
493,
492,
492,
484,
434,
451,
451,
433,
430,
436,
441,
390,
385,
394,
363,
415,
397,
336,
349,
337,
354,
343,
345,
278,
308,
307,
286,
295,
281,
268,
278,
284,
259,
272,
270,
212,
253,
252,
217,
211,
207,
221,
210,
208,
189,
173,
201,
200,
200,
173,
152,
196,
167,
181,
155,
165,
158,
149,
145,
160,
123,
128,
127,
147,
123,
133,
108,
115,
105,
110,
100,
97,
92,
102,
80,
72,
83,
85,
81,
78,
73,
80,
70,
64,
77,
67,
61,
48,
53,
59,
47,
58,
48,
49,
47,
36,
49,
31,
42,
46,
36,
40,
34,
29,
28,
24,
21,
27,
25,
22,
18,
20,
17,
15,
16,
17,
13,
10,
13,
6,
6,
5,
6,
3,
2,
5,
5,
2,
0,
2,
0,
0,
0,
1,
0,
0,
0,
0,
0,
0,
1,
0,
0,
0,
0,
1,
2,
0,
0,
1,
1,
0,
0,
0,
0,
1,
0,
0,
0,
0,
0,
0,
1,
0,
0,
0,
0,
0,
0,
1,
0,
0,
0,
0,
0,
0,
0,
1,
0,
0,
0,
0,
0,
0,
0,
1,
0,
0,
0,
0,
0,
0,
0,
0,
0,
0,
0,
0,
0,
0,
#ENDOFDATA   :