File: weave/spectra/SiO2_StdC_15kV7p5nA130kHz_300s.msa
#FORMAT      : EMSA/MAS Spectral Data File
#VERSION     : 1.0
#TITLE       : Bruker Nano spectrum Acquisition
#DATE        : 31-DEC-1969
#TIME        : 07:00
#OWNER       : Bruker Nano
#NPOINTS     : 4096
#NCOLUMNS    : 1
#XUNITS      : eV
#YUNITS      : counts
#DATATYPE    : Y
#XPERCHAN    : 5.00332
#OFFSET      : -482.834
#BEAMKV      : 15
#SIGNALTYPE  : EDS
#ELEVANGLE   : 40
#AZIMANGLE   : 45
#LIVETIME    : 300
#REALTIME    : 347.996
#PROBECUR    : 7.5
#TAUWIND     : 0
#TDEADLYR    : 0
#TACTLYR     : 0.045
#TALWIND     : 0.004
#CHOFFSET    : 0.0
#XLABEL      : Energy (eV)
#YLABEL      : Counts
#EDSDET      : SDUTW
##SPECIMEN   : SiO2_StdC_15kV7p5nA130kHz_300s
##D2STDCMP   : SiO2,(O:53.2565),(Si:46.7435),2.63
##DET_HASH   : c6370f9e-cc72-7559-f57e-203d75c8942b
##CALIB_HASH : b7972ae8-4123-2fc4-0a4f-7316ec9026e4
##SAMPLE     : <BulkSample id="1">\n<mOrientation id="2">\n<double>0.0</double>\n<double>0.0</double>\n<double>-1.0</double>\n</mOrientation>\n</BulkSample>
#SPECTRUM    :
0,
0,
0,
0,
8,
29,
5752,
418100,
169,
972,
2110,
10944,
2099,
5177,
201870,
56954,
2761,
3448,
4001,
4945,
5398,
6255,
6618,
7047,
7269,
7697,
7985,
8305,
9432,
9984,
10335,
222345,
630044,
56140,
8914,
4153,
3964,
3905,
4169,
4122,
4035,
3902,
3787,
3791,
3659,
3561,
3561,
3525,
3247,
3276,
3235,
3148,
3090,
2999,
2976,
2847,
2714,
2649,
2616,
2924,
3011,
2539,
2444,
2429,
2290,
2304,
2222,
2201,
2024,
2049,
1984,
1968,
1926,
1844,
1868,
1794,
1689,
1695,
1675,
1637,
1598,
1566,
1501,
1486,
1452,
1410,
1392,
1381,
1325,
1274,
1351,
1259,
1251,
1217,
1193,
1178,
1073,
1097,
1082,
1057,
1068,
1027,
998,
914,
919,
987,
943,
847,
838,
817,
848,
770,
761,
819,
783,
740,
756,
749,
758,
678,
644,
689,
617,
612,
620,
582,
563,
595,
558,
589,
547,
526,
502,
545,
480,
470,
430,
438,
491,
476,
373,
425,
419,
400,
405,
399,
362,
344,
355,
344,
332,
327,
305,
324,
311,
294,
277,
270,
298,
264,
254,
241,
229,
273,
233,
221,
202,
201,
208,
178,
173,
183,
174,
190,
173,
155,
157,
168,
137,
143,
132,
137,
114,
99,
123,
106,
92,
86,
82,
110,
93,
93,
88,
67,
75,
68,
55,
60,
52,
52,
52,
53,
46,
46,
37,
42,
26,
20,
34,
30,
36,
22,
13,
21,
15,
14,
10,
7,
6,
7,
5,
4,
3,
1,
0,
0,
1,
2,
2,
1,
1,
0,
0,
0,
0,
0,
0,
0,
0,
0,
0,
0,
1,
0,
0,
2,
0,
0,
0,
0,
0,
0,
0,
0,
0,
0,
0,
0,
0,
0,
0,
0,
0,
0,
0,
0,
0,
0,
0,
0,
0,
0,
0,
0,
0,
0,
0,
0,
0,
0,
0,
0,
0,
0,
0,
0,
0,
0,
0,
1,
0,
0,
0,
0,
#ENDOFDATA   :